% Moku:Go Oscilloscope
% Channel A (Input 1), DC coupling, 1 x probe attenuation
% Channel B (Input 2), DC coupling, 1 x probe attenuation
% Time span 44.52 us, time offset -29.93 us, Normal acquisition mode, 83 averages
% Edge trigger: Channel A, level 999.0 mV, Auto mode, Both edge, Auto sensitivity, noise reject off, HF reject off
% Output 1 (off) - Sine, 10.000 000 000 000 MHz, 1.000 0 Vpp, offset 0.000 0 V, phase 0.000 000 deg
% Output 2 (off) - Ramp, 50.000 000 000 kHz, 500.0 mVpp, offset 0.000 0 V, phase 0.000 000 deg, symmetry 90.00 %
% Acquired 2023-09-28 T 11:49:15 -0400
% Time (s)
7.664000000000e-06
7.712000000000e-06
7.760000000000e-06
7.808000000000e-06
7.856000000000e-06
7.904000000000e-06
7.952000000000e-06
8.000000000000e-06
8.048000000000e-06
8.096000000000e-06
8.144000000000e-06
8.192000000000e-06
8.240000000000e-06
8.288000000000e-06
8.336000000000e-06
8.384000000000e-06
8.432000000000e-06
8.480000000000e-06
8.528000000000e-06
8.576000000000e-06
8.624000000000e-06
8.672000000000e-06
8.720000000000e-06
8.768000000000e-06
8.816000000000e-06
8.864000000000e-06
8.912000000000e-06
8.960000000000e-06
9.008000000000e-06
9.056000000000e-06
9.104000000000e-06
9.152000000000e-06
9.200000000000e-06
9.248000000000e-06
9.296000000000e-06
9.344000000000e-06
9.392000000000e-06
9.440000000000e-06
9.488000000000e-06
9.536000000000e-06
9.584000000000e-06
9.632000000000e-06
9.680000000000e-06
9.728000000000e-06
9.776000000000e-06
9.824000000000e-06
9.872000000000e-06
9.920000000000e-06
9.968000000000e-06
1.001600000000e-05
1.006400000000e-05
1.011200000000e-05
1.016000000000e-05
1.020800000000e-05
1.025600000000e-05
1.030400000000e-05
1.035200000000e-05
1.040000000000e-05
1.044800000000e-05
1.049600000000e-05
1.054400000000e-05
1.059200000000e-05
1.064000000000e-05
1.068800000000e-05
1.073600000000e-05
1.078400000000e-05
1.083200000000e-05
1.088000000000e-05
1.092800000000e-05
1.097600000000e-05
1.102400000000e-05
1.107200000000e-05
1.112000000000e-05
1.116800000000e-05
1.121600000000e-05
1.126400000000e-05
1.131200000000e-05
1.136000000000e-05
1.140800000000e-05
1.145600000000e-05
1.150400000000e-05
1.155200000000e-05
1.160000000000e-05
1.164800000000e-05
1.169600000000e-05
1.174400000000e-05
1.179200000000e-05
1.184000000000e-05
1.188800000000e-05
1.193600000000e-05
1.198400000000e-05
1.203200000000e-05
1.208000000000e-05
1.212800000000e-05
1.217600000000e-05
1.222400000000e-05
1.227200000000e-05
1.232000000000e-05
1.236800000000e-05
1.241600000000e-05
1.246400000000e-05
1.251200000000e-05
1.256000000000e-05
1.260800000000e-05
1.265600000000e-05
1.270400000000e-05
1.275200000000e-05
1.280000000000e-05
1.284800000000e-05
1.289600000000e-05
1.294400000000e-05
1.299200000000e-05
1.304000000000e-05
1.308800000000e-05
1.313600000000e-05
1.318400000000e-05
1.323200000000e-05
1.328000000000e-05
1.332800000000e-05
1.337600000000e-05
1.342400000000e-05
1.347200000000e-05
1.352000000000e-05
1.356800000000e-05
1.361600000000e-05
1.366400000000e-05
1.371200000000e-05
1.376000000000e-05
1.380800000000e-05
1.385600000000e-05
1.390400000000e-05
1.395200000000e-05
1.400000000000e-05
1.404800000000e-05
1.409600000000e-05
1.414400000000e-05
1.419200000000e-05
1.424000000000e-05
1.428800000000e-05
1.433600000000e-05
1.438400000000e-05
1.443200000000e-05
1.448000000000e-05
1.452800000000e-05
1.457600000000e-05
1.462400000000e-05
1.467200000000e-05
1.472000000000e-05
1.476800000000e-05
1.481600000000e-05
1.486400000000e-05
1.491200000000e-05
1.496000000000e-05
1.500800000000e-05
1.505600000000e-05
1.510400000000e-05
1.515200000000e-05
1.520000000000e-05
1.524800000000e-05
1.529600000000e-05
1.534400000000e-05
1.539200000000e-05
1.544000000000e-05
1.548800000000e-05
1.553600000000e-05
1.558400000000e-05
1.563200000000e-05
1.568000000000e-05
1.572800000000e-05
1.577600000000e-05
1.582400000000e-05
1.587200000000e-05
1.592000000000e-05
1.596800000000e-05
1.601600000000e-05
1.606400000000e-05
1.611200000000e-05
1.616000000000e-05
1.620800000000e-05
1.625600000000e-05
1.630400000000e-05
1.635200000000e-05
1.640000000000e-05
1.644800000000e-05
1.649600000000e-05
1.654400000000e-05
1.659200000000e-05
1.664000000000e-05
1.668800000000e-05
1.673600000000e-05
1.678400000000e-05
1.683200000000e-05
1.688000000000e-05
1.692800000000e-05
1.697600000000e-05
1.702400000000e-05
1.707200000000e-05
1.712000000000e-05
1.716800000000e-05
1.721600000000e-05
1.726400000000e-05
1.731200000000e-05
1.736000000000e-05
1.740800000000e-05
1.745600000000e-05
1.750400000000e-05
1.755200000000e-05
1.760000000000e-05
1.764800000000e-05
1.769600000000e-05
1.774400000000e-05
1.779200000000e-05
1.784000000000e-05
1.788800000000e-05
1.793600000000e-05
1.798400000000e-05
1.803200000000e-05
1.808000000000e-05
1.812800000000e-05
1.817600000000e-05
1.822400000000e-05
1.827200000000e-05
1.832000000000e-05
1.836800000000e-05
1.841600000000e-05
1.846400000000e-05
1.851200000000e-05
1.856000000000e-05
1.860800000000e-05
1.865600000000e-05
1.870400000000e-05
1.875200000000e-05
1.880000000000e-05
1.884800000000e-05
1.889600000000e-05
1.894400000000e-05
1.899200000000e-05
1.904000000000e-05
1.908800000000e-05
1.913600000000e-05
1.918400000000e-05
1.923200000000e-05
1.928000000000e-05
1.932800000000e-05
1.937600000000e-05
1.942400000000e-05
1.947200000000e-05
1.952000000000e-05
1.956800000000e-05
1.961600000000e-05
1.966400000000e-05
1.971200000000e-05
1.976000000000e-05
1.980800000000e-05
1.985600000000e-05
1.990400000000e-05
1.995200000000e-05
2.000000000000e-05
2.004800000000e-05
2.009600000000e-05
2.014400000000e-05
2.019200000000e-05
2.024000000000e-05
2.028800000000e-05
2.033600000000e-05
2.038400000000e-05
2.043200000000e-05
2.048000000000e-05
2.052800000000e-05
2.057600000000e-05
2.062400000000e-05
2.067200000000e-05
2.072000000000e-05
2.076800000000e-05
2.081600000000e-05
2.086400000000e-05
2.091200000000e-05
2.096000000000e-05
2.100800000000e-05
2.105600000000e-05
2.110400000000e-05
2.115200000000e-05
2.120000000000e-05
2.124800000000e-05
2.129600000000e-05
2.134400000000e-05
2.139200000000e-05
2.144000000000e-05
2.148800000000e-05
2.153600000000e-05
2.158400000000e-05
2.163200000000e-05
2.168000000000e-05
2.172800000000e-05
2.177600000000e-05
2.182400000000e-05
2.187200000000e-05
2.192000000000e-05
2.196800000000e-05
2.201600000000e-05
2.206400000000e-05
2.211200000000e-05
2.216000000000e-05
2.220800000000e-05
2.225600000000e-05
2.230400000000e-05
2.235200000000e-05
2.240000000000e-05
2.244800000000e-05
2.249600000000e-05
2.254400000000e-05
2.259200000000e-05
2.264000000000e-05
2.268800000000e-05
2.273600000000e-05
2.278400000000e-05
2.283200000000e-05
2.288000000000e-05
2.292800000000e-05
2.297600000000e-05
2.302400000000e-05
2.307200000000e-05
2.312000000000e-05
2.316800000000e-05
2.321600000000e-05
2.326400000000e-05
2.331200000000e-05
2.336000000000e-05
2.340800000000e-05
2.345600000000e-05
2.350400000000e-05
2.355200000000e-05
2.360000000000e-05
2.364800000000e-05
2.369600000000e-05
2.374400000000e-05
2.379200000000e-05
2.384000000000e-05
2.388800000000e-05
2.393600000000e-05
2.398400000000e-05
2.403200000000e-05
2.408000000000e-05
2.412800000000e-05
2.417600000000e-05
2.422400000000e-05
2.427200000000e-05
2.432000000000e-05
2.436800000000e-05
2.441600000000e-05
2.446400000000e-05
2.451200000000e-05
2.456000000000e-05
2.460800000000e-05
2.465600000000e-05
2.470400000000e-05
2.475200000000e-05
2.480000000000e-05
2.484800000000e-05
2.489600000000e-05
2.494400000000e-05
2.499200000000e-05
2.504000000000e-05
2.508800000000e-05
2.513600000000e-05
2.518400000000e-05
2.523200000000e-05
2.528000000000e-05
2.532800000000e-05
2.537600000000e-05
2.542400000000e-05
2.547200000000e-05
2.552000000000e-05
2.556800000000e-05
2.561600000000e-05
2.566400000000e-05
2.571200000000e-05
2.576000000000e-05
2.580800000000e-05
2.585600000000e-05
2.590400000000e-05
2.595200000000e-05
2.600000000000e-05
2.604800000000e-05
2.609600000000e-05
2.614400000000e-05
2.619200000000e-05
2.624000000000e-05
2.628800000000e-05
2.633600000000e-05
2.638400000000e-05
2.643200000000e-05
2.648000000000e-05
2.652800000000e-05
2.657600000000e-05
2.662400000000e-05
2.667200000000e-05
2.672000000000e-05
2.676800000000e-05
2.681600000000e-05
2.686400000000e-05
2.691200000000e-05
2.696000000000e-05
2.700800000000e-05
2.705600000000e-05
2.710400000000e-05
2.715200000000e-05
2.720000000000e-05
2.724800000000e-05
2.729600000000e-05
2.734400000000e-05
2.739200000000e-05
2.744000000000e-05
2.748800000000e-05
2.753600000000e-05
2.758400000000e-05
2.763200000000e-05
2.768000000000e-05
2.772800000000e-05
2.777600000000e-05
2.782400000000e-05
2.787200000000e-05
2.792000000000e-05
2.796800000000e-05
2.801600000000e-05
2.806400000000e-05
2.811200000000e-05
2.816000000000e-05
2.820800000000e-05
2.825600000000e-05
2.830400000000e-05
2.835200000000e-05
2.840000000000e-05
2.844800000000e-05
2.849600000000e-05
2.854400000000e-05
2.859200000000e-05
2.864000000000e-05
2.868800000000e-05
2.873600000000e-05
2.878400000000e-05
2.883200000000e-05
2.888000000000e-05
2.892800000000e-05
2.897600000000e-05
2.902400000000e-05
2.907200000000e-05
2.912000000000e-05
2.916800000000e-05
2.921600000000e-05
2.926400000000e-05
2.931200000000e-05
2.936000000000e-05
2.940800000000e-05
2.945600000000e-05
2.950400000000e-05
2.955200000000e-05
2.960000000000e-05
2.964800000000e-05
2.969600000000e-05
2.974400000000e-05
2.979200000000e-05
2.984000000000e-05
2.988800000000e-05
2.993600000000e-05
2.998400000000e-05
3.003200000000e-05
3.008000000000e-05
3.012800000000e-05
3.017600000000e-05
3.022400000000e-05
3.027200000000e-05
3.032000000000e-05
3.036800000000e-05
3.041600000000e-05
3.046400000000e-05
3.051200000000e-05
3.056000000000e-05
3.060800000000e-05
3.065600000000e-05
3.070400000000e-05
3.075200000000e-05
3.080000000000e-05
3.084800000000e-05
3.089600000000e-05
3.094400000000e-05
3.099200000000e-05
3.104000000000e-05
3.108800000000e-05
3.113600000000e-05
3.118400000000e-05
3.123200000000e-05
3.128000000000e-05
3.132800000000e-05
3.137600000000e-05
3.142400000000e-05
3.147200000000e-05
3.152000000000e-05
3.156800000000e-05
3.161600000000e-05
3.166400000000e-05
3.171200000000e-05
3.176000000000e-05
3.180800000000e-05
3.185600000000e-05
3.190400000000e-05
3.195200000000e-05
3.200000000000e-05
3.204800000000e-05
3.209600000000e-05
3.214400000000e-05
3.219200000000e-05
3.224000000000e-05
3.228800000000e-05
3.233600000000e-05
3.238400000000e-05
3.243200000000e-05
3.248000000000e-05
3.252800000000e-05
3.257600000000e-05
3.262400000000e-05
3.267200000000e-05
3.272000000000e-05
3.276800000000e-05
3.281600000000e-05
3.286400000000e-05
3.291200000000e-05
3.296000000000e-05
3.300800000000e-05
3.305600000000e-05
3.310400000000e-05
3.315200000000e-05
3.320000000000e-05
3.324800000000e-05
3.329600000000e-05
3.334400000000e-05
3.339200000000e-05
3.344000000000e-05
3.348800000000e-05
3.353600000000e-05
3.358400000000e-05
3.363200000000e-05
3.368000000000e-05
3.372800000000e-05
3.377600000000e-05
3.382400000000e-05
3.387200000000e-05
3.392000000000e-05
3.396800000000e-05
3.401600000000e-05
3.406400000000e-05
3.411200000000e-05
3.416000000000e-05
3.420800000000e-05
3.425600000000e-05
3.430400000000e-05
3.435200000000e-05
3.440000000000e-05
3.444800000000e-05
3.449600000000e-05
3.454400000000e-05
3.459200000000e-05
3.464000000000e-05
3.468800000000e-05
3.473600000000e-05
3.478400000000e-05
3.483200000000e-05
3.488000000000e-05
3.492800000000e-05
3.497600000000e-05
3.502400000000e-05
3.507200000000e-05
3.512000000000e-05
3.516800000000e-05
3.521600000000e-05
3.526400000000e-05
3.531200000000e-05
3.536000000000e-05
3.540800000000e-05
3.545600000000e-05
3.550400000000e-05
3.555200000000e-05
3.560000000000e-05
3.564800000000e-05
3.569600000000e-05
3.574400000000e-05
3.579200000000e-05
3.584000000000e-05
3.588800000000e-05
3.593600000000e-05
3.598400000000e-05
3.603200000000e-05
3.608000000000e-05
3.612800000000e-05
3.617600000000e-05
3.622400000000e-05
3.627200000000e-05
3.632000000000e-05
3.636800000000e-05
3.641600000000e-05
3.646400000000e-05
3.651200000000e-05
3.656000000000e-05
3.660800000000e-05
3.665600000000e-05
3.670400000000e-05
3.675200000000e-05
3.680000000000e-05
3.684800000000e-05
3.689600000000e-05
3.694400000000e-05
3.699200000000e-05
3.704000000000e-05
3.708800000000e-05
3.713600000000e-05
3.718400000000e-05
3.723200000000e-05
3.728000000000e-05
3.732800000000e-05
3.737600000000e-05
3.742400000000e-05
3.747200000000e-05
3.752000000000e-05
3.756800000000e-05
3.761600000000e-05
3.766400000000e-05
3.771200000000e-05
3.776000000000e-05
3.780800000000e-05
3.785600000000e-05
3.790400000000e-05
3.795200000000e-05
3.800000000000e-05
3.804800000000e-05
3.809600000000e-05
3.814400000000e-05
3.819200000000e-05
3.824000000000e-05
3.828800000000e-05
3.833600000000e-05
3.838400000000e-05
3.843200000000e-05
3.848000000000e-05
3.852800000000e-05
3.857600000000e-05
3.862400000000e-05
3.867200000000e-05
3.872000000000e-05
3.876800000000e-05
3.881600000000e-05
3.886400000000e-05
3.891200000000e-05
3.896000000000e-05
3.900800000000e-05
3.905600000000e-05
3.910400000000e-05
3.915200000000e-05
3.920000000000e-05
3.924800000000e-05
3.929600000000e-05
3.934400000000e-05
3.939200000000e-05
3.944000000000e-05
3.948800000000e-05
3.953600000000e-05
3.958400000000e-05
3.963200000000e-05
3.968000000000e-05
3.972800000000e-05
3.977600000000e-05
3.982400000000e-05
3.987200000000e-05
3.992000000000e-05
3.996800000000e-05
4.001600000000e-05
4.006400000000e-05
4.011200000000e-05
4.016000000000e-05
4.020800000000e-05
4.025600000000e-05
4.030400000000e-05
4.035200000000e-05
4.040000000000e-05
4.044800000000e-05
4.049600000000e-05
4.054400000000e-05
4.059200000000e-05
4.064000000000e-05
4.068800000000e-05
4.073600000000e-05
4.078400000000e-05
4.083200000000e-05
4.088000000000e-05
4.092800000000e-05
4.097600000000e-05
4.102400000000e-05
4.107200000000e-05
4.112000000000e-05
4.116800000000e-05
4.121600000000e-05
4.126400000000e-05
4.131200000000e-05
4.136000000000e-05
4.140800000000e-05
4.145600000000e-05
4.150400000000e-05
4.155200000000e-05
4.160000000000e-05
4.164800000000e-05
4.169600000000e-05
4.174400000000e-05
4.179200000000e-05
4.184000000000e-05
4.188800000000e-05
4.193600000000e-05
4.198400000000e-05
4.203200000000e-05
4.208000000000e-05
4.212800000000e-05
4.217600000000e-05
4.222400000000e-05
4.227200000000e-05
4.232000000000e-05
4.236800000000e-05
4.241600000000e-05
4.246400000000e-05
4.251200000000e-05
4.256000000000e-05
4.260800000000e-05
4.265600000000e-05
4.270400000000e-05
4.275200000000e-05
4.280000000000e-05
4.284800000000e-05
4.289600000000e-05
4.294400000000e-05
4.299200000000e-05
4.304000000000e-05
4.308800000000e-05
4.313600000000e-05
4.318400000000e-05
4.323200000000e-05
4.328000000000e-05
4.332800000000e-05
4.337600000000e-05
4.342400000000e-05
4.347200000000e-05
4.352000000000e-05
4.356800000000e-05
4.361600000000e-05
4.366400000000e-05
4.371200000000e-05
4.376000000000e-05
4.380800000000e-05
4.385600000000e-05
4.390400000000e-05
4.395200000000e-05
4.400000000000e-05
4.404800000000e-05
4.409600000000e-05
4.414400000000e-05
4.419200000000e-05
4.424000000000e-05
4.428800000000e-05
4.433600000000e-05
4.438400000000e-05
4.443200000000e-05
4.448000000000e-05
4.452800000000e-05
4.457600000000e-05
4.462400000000e-05
4.467200000000e-05
4.472000000000e-05
4.476800000000e-05
4.481600000000e-05
4.486400000000e-05
4.491200000000e-05
4.496000000000e-05
4.500800000000e-05
4.505600000000e-05
4.510400000000e-05
4.515200000000e-05
4.520000000000e-05
4.524800000000e-05
4.529600000000e-05
4.534400000000e-05
4.539200000000e-05
4.544000000000e-05
4.548800000000e-05
4.553600000000e-05
4.558400000000e-05
4.563200000000e-05
4.568000000000e-05
4.572800000000e-05
4.577600000000e-05
4.582400000000e-05
4.587200000000e-05
4.592000000000e-05
4.596800000000e-05
4.601600000000e-05
4.606400000000e-05
4.611200000000e-05
4.616000000000e-05
4.620800000000e-05
4.625600000000e-05
4.630400000000e-05
4.635200000000e-05
4.640000000000e-05
4.644800000000e-05
4.649600000000e-05
4.654400000000e-05
4.659200000000e-05
4.664000000000e-05
4.668800000000e-05
4.673600000000e-05
4.678400000000e-05
4.683200000000e-05
4.688000000000e-05
4.692800000000e-05
4.697600000000e-05
4.702400000000e-05
4.707200000000e-05
4.712000000000e-05
4.716800000000e-05
4.721600000000e-05
4.726400000000e-05
4.731200000000e-05
4.736000000000e-05
4.740800000000e-05
4.745600000000e-05
4.750400000000e-05
4.755200000000e-05
4.760000000000e-05
4.764800000000e-05
4.769600000000e-05
4.774400000000e-05
4.779200000000e-05
4.784000000000e-05
4.788800000000e-05
4.793600000000e-05
4.798400000000e-05
4.803200000000e-05
4.808000000000e-05
4.812800000000e-05
4.817600000000e-05
4.822400000000e-05
4.827200000000e-05
4.832000000000e-05
4.836800000000e-05
4.841600000000e-05
4.846400000000e-05
4.851200000000e-05
4.856000000000e-05
4.860800000000e-05
4.865600000000e-05
4.870400000000e-05
4.875200000000e-05
4.880000000000e-05
4.884800000000e-05
4.889600000000e-05
4.894400000000e-05
4.899200000000e-05
4.904000000000e-05
4.908800000000e-05
4.913600000000e-05
4.918400000000e-05
4.923200000000e-05
4.928000000000e-05
4.932800000000e-05
4.937600000000e-05
4.942400000000e-05
4.947200000000e-05
4.952000000000e-05
4.956800000000e-05
4.961600000000e-05
4.966400000000e-05
4.971200000000e-05
4.976000000000e-05
4.980800000000e-05
4.985600000000e-05
4.990400000000e-05
4.995200000000e-05
5.000000000000e-05
5.004800000000e-05
5.009600000000e-05
5.014400000000e-05
5.019200000000e-05
5.024000000000e-05
5.028800000000e-05
5.033600000000e-05
5.038400000000e-05
5.043200000000e-05
5.048000000000e-05
5.052800000000e-05
5.057600000000e-05
5.062400000000e-05
5.067200000000e-05
5.072000000000e-05
5.076800000000e-05
5.081600000000e-05
5.086400000000e-05
5.091200000000e-05
5.096000000000e-05
5.100800000000e-05
5.105600000000e-05
5.110400000000e-05
5.115200000000e-05
5.120000000000e-05
5.124800000000e-05
5.129600000000e-05
5.134400000000e-05
5.139200000000e-05
5.144000000000e-05
5.148800000000e-05
5.153600000000e-05
5.158400000000e-05
5.163200000000e-05
5.168000000000e-05
5.172800000000e-05
5.177600000000e-05
5.182400000000e-05
5.187200000000e-05
5.192000000000e-05
5.196800000000e-05
5.201600000000e-05
5.206400000000e-05
5.211200000000e-05
5.216000000000e-05
5.220800000000e-05
5.225600000000e-05
5.230400000000e-05
5.235200000000e-05
5.240000000000e-05
5.244800000000e-05
5.249600000000e-05
5.254400000000e-05
5.259200000000e-05
5.264000000000e-05
5.268800000000e-05
5.273600000000e-05
5.278400000000e-05
5.283200000000e-05
5.288000000000e-05
5.292800000000e-05
5.297600000000e-05
5.302400000000e-05
5.307200000000e-05
5.312000000000e-05
5.316800000000e-05
5.321600000000e-05
5.326400000000e-05
5.331200000000e-05
5.336000000000e-05
5.340800000000e-05
5.345600000000e-05
5.350400000000e-05
5.355200000000e-05
5.360000000000e-05
5.364800000000e-05
5.369600000000e-05
5.374400000000e-05
5.379200000000e-05
5.384000000000e-05
5.388800000000e-05
5.393600000000e-05
5.398400000000e-05
5.403200000000e-05
5.408000000000e-05
5.412800000000e-05
5.417600000000e-05
5.422400000000e-05
5.427200000000e-05
5.432000000000e-05
5.436800000000e-05
5.441600000000e-05
5.446400000000e-05
5.451200000000e-05
5.456000000000e-05
5.460800000000e-05
5.465600000000e-05
5.470400000000e-05
5.475200000000e-05
5.480000000000e-05
5.484800000000e-05
5.489600000000e-05
5.494400000000e-05
5.499200000000e-05
5.504000000000e-05
5.508800000000e-05
5.513600000000e-05
5.518400000000e-05
5.523200000000e-05
5.528000000000e-05
5.532800000000e-05
5.537600000000e-05
5.542400000000e-05
5.547200000000e-05
5.552000000000e-05
5.556800000000e-05
5.561600000000e-05
5.566400000000e-05
5.571200000000e-05
5.576000000000e-05
5.580800000000e-05
5.585600000000e-05
5.590400000000e-05
5.595200000000e-05
5.600000000000e-05
5.604800000000e-05
5.609600000000e-05
5.614400000000e-05
5.619200000000e-05
5.624000000000e-05
5.628800000000e-05
5.633600000000e-05
5.638400000000e-05
5.643200000000e-05
5.648000000000e-05
5.652800000000e-05
5.657600000000e-05
5.662400000000e-05
5.667200000000e-05
5.672000000000e-05
5.676800000000e-05
